#Acq. time (s)=	10
#Accumulations=	2
#Range (cm-¹)=	-20...3600
#Windows=	2
#Auto scanning=	Off
#Autofocus=	Off
#Macrospot=	Off
#AutoExposure=	Off
#Spike filter=	Multiple accum.
#Delay time (s)=	0
#Binning=	1
#Readout mode=	Signal
#DeNoise=	Off
#ICS correction=	Off
#Dark correction=	Off
#Inst. Process=	Off
#Detector temperature (°C)=	-75.13
#Instrument=	LabRAM HR Evol
#Detector=	Synapse
#Objective=	X50_VIS_LWD
#Grating=	600 (500nm)
#ND Filter=	100%
#Laser (nm)=	488 
#Hole=	49.98
#Range=	Visible
#StageXY=	Marzhauser
#StageZ=	Marzhauser
#X (µm)=	0
#Y (µm)=	0
#Z (µm)=	0
#Full time(s)=	53
#Project=	2021-4-13_Andrew_Fertilizer
#Sample=	
#Site=	
#Title=	_2021_04_13_15_19_13_Gro Fine_30-0-4_488 nm_600 (500nm)_X50_VIS_LWD_100%_
#Remark=	
#Date=	13.04.2021 15:19
#Acquired=	13.04.2021 15:19:32
-19.9276	1
-18.7746	-6
-17.6218	9
-16.469	10
-15.3164	9
-14.1639	9
-13.0115	5
-11.8593	8
-10.7072	11
-9.55521	13
-8.40337	20
-7.25165	39
-6.10007	153
-4.94861	301
-3.79728	346
-2.64609	257
-1.49502	84
-0.344078	23
0.805451	9
1.95613	7
3.10668	8
4.25711	6
5.4074	10
6.55756	9
7.7076	9
8.8575	6
10.0073	9
11.1569	7
12.3064	9
13.4558	4
14.6038	10
15.753	11
16.902	10
18.0508	14
19.1996	9
20.3482	13
21.4967	11
22.645	13
23.7933	17
24.9401	11
26.0881	16
27.2359	17
28.3836	25
29.5312	25
30.6787	53
31.826	87
32.9719	157
34.119	191
35.2659	266
36.4127	426
37.5594	557
38.706	673
39.8511	789
40.9974	818
42.1436	885
43.2896	901
44.4356	882
45.5813	880
46.7257	865
47.8713	859
49.0167	860
50.1619	814
51.3071	808
52.4508	759
53.5957	802
54.7405	772
55.8851	798
57.0283	793
58.1727	811
59.317	824
60.4611	853
61.6051	904
62.7477	1013
63.8914	1092
65.035	1261
66.1785	1264
67.3206	1308
68.4638	1283
69.6069	1323
70.7498	1298
71.8914	1264
73.0341	1309
74.1767	1226
75.3192	1246
76.4602	1196
77.6024	1127
78.7445	1063
79.8852	1120
81.027	1139
82.1687	1096
83.3102	1078
84.4504	1069
85.5917	1032
86.7329	1022
87.8727	1006
89.0136	953
90.1544	993
91.2938	954
92.4343	884
93.5747	915
94.7137	897
95.8539	865
96.9939	831
98.1326	848
99.2723	819
100.412	792
101.55	782
102.69	769
103.829	786
104.967	730
106.106	754
107.245	731
108.382	672
109.521	682
110.658	657
111.796	647
112.935	653
114.072	655
115.21	610
116.347	608
117.484	607
118.621	611
119.758	609
120.895	598
122.032	606
123.168	571
124.305	603
125.441	561
126.577	560
127.713	553
128.849	564
129.986	548
131.121	509
132.257	556
133.391	522
134.527	518
135.662	510
136.797	524
137.931	496
139.067	501
140.202	534
141.336	517
142.471	527
143.604	528
144.739	466
145.872	478
147.007	478
148.14	483
149.274	484
150.407	485
151.541	451
152.673	460
153.807	464
154.939	475
156.073	455
157.205	502
158.338	432.995
159.47	434.99
160.603	453.985
161.734	459.979
162.867	436.974
163.998	452.969
165.131	406.964
166.262	384.959
167.394	437.954
168.525	427.949
169.655	416.943
170.787	406.938
171.917	437.933
173.049	429.928
174.179	425.923
175.31	378.918
176.44	402.913
177.571	416.907
178.701	387.902
179.831	374.897
180.961	379.892
182.091	391.887
183.221	358.882
184.35	378.877
185.479	355.871
186.609	368.866
187.738	371.861
188.867	351.856
189.996	357.851
191.124	352.846
192.253	345.841
193.381	334.835
194.511	333.83
195.638	315.825
196.766	329.82
197.895	336.815
199.022	335.81
200.149	321.804
201.278	302.799
202.405	312.794
203.533	318.789
204.66	318.784
205.786	333.779
206.914	301.774
208.041	306.768
209.167	298.763
210.294	276.758
211.42	286.753
212.546	317.748
213.673	285.743
214.799	279.738
215.924	296.732
217.051	298.727
218.176	291.722
219.301	282.717
220.426	257.712
221.553	261.707
222.677	272.702
223.802	262.696
224.928	265.691
226.052	262.686
227.176	265.681
228.302	244.676
229.426	239.671
230.55	266.666
231.674	249.66
232.798	243.655
233.922	240.65
235.045	260.645
236.169	225.64
237.293	219.635
238.416	263.63
239.539	233.624
240.662	229.619
241.786	245.614
242.908	218.609
244.031	235.604
245.153	219.599
246.276	202.594
247.398	214.588
248.52	203.583
249.642	227.578
250.764	223.573
251.886	213.568
253.008	210.563
254.129	198.558
255.25	222.552
256.371	193.547
257.493	186.542
258.614	210.537
259.735	228.532
260.855	201.527
261.976	189.522
263.097	199.516
264.218	209.511
265.338	206.506
266.458	172.501
267.577	196.496
268.697	193.491
269.818	181.486
270.937	189.48
272.056	190.475
273.176	169.47
274.295	192.465
275.414	165.46
276.532	190.455
277.652	169.449
278.771	195.444
279.889	173.439
281.008	197.434
282.126	174.429
283.244	185.424
284.362	160.419
285.48	186.413
286.599	174.408
287.716	192.403
288.834	170.398
289.951	159.393
291.068	185.388
292.185	177.383
293.302	162.377
294.419	177.372
295.536	161.367
296.652	159.362
297.769	166.357
298.885	180.352
300.002	169.347
301.118	148.341
302.234	172.336
303.35	166.331
304.466	169.326
305.582	170.321
306.697	163.316
307.812	163.311
308.928	157.305
310.043	169.3
311.158	165.295
312.273	172.29
313.387	149.285
314.502	159.28
315.616	167.275
316.731	161.269
317.845	171.264
318.959	147.259
320.073	164.254
321.187	161.249
322.301	162.244
323.414	160.239
324.528	157.233
325.641	162.228
326.754	176.223
327.867	151.218
328.98	139.213
330.093	160.208
331.206	172.203
332.319	158.197
333.431	151.192
334.544	157.187
335.656	144.182
336.768	141.177
337.88	160.172
338.992	150.167
340.104	170.161
341.215	160.156
342.326	160.151
343.437	146.146
344.548	163.141
345.66	146.136
346.771	138.131
347.882	139.125
348.992	148.12
350.103	163.115
351.214	168.11
352.324	166.105
353.434	165.1
354.544	121.094
355.653	175.089
356.763	163.084
357.873	155.079
358.983	150.074
360.092	172.069
361.202	156.064
362.311	150.058
363.42	163.053
364.528	156.048
365.637	156.043
366.746	166.038
367.855	165.033
368.963	160.028
370.072	147.022
371.18	173.017
372.287	166.012
373.395	159.007
374.503	149.002
375.611	180.997
376.719	160.992
377.826	180.986
378.933	170.981
380.04	165.976
381.147	173.971
382.254	169.966
383.361	187.961
384.467	174.956
385.574	185.95
386.68	159.945
387.787	173.94
388.893	165.935
389.998	171.93
391.105	161.925
392.211	171.92
393.316	173.914
394.421	156.909
395.527	162.904
396.632	155.899
397.738	172.894
398.843	175.889
399.947	172.884
401.052	190.878
402.157	179.873
403.262	149.868
404.365	172.863
405.47	175.858
406.574	187.853
407.677	147.848
408.782	178.842
409.886	155.837
410.99	177.832
412.092	162.827
413.196	158.822
414.3	171.817
415.403	177.812
416.505	168.806
417.608	177.801
418.711	180.796
419.813	145.791
420.916	162.786
422.019	187.781
423.12	168.776
424.223	178.77
425.325	176.765
426.426	163.76
427.528	168.755
428.63	183.75
429.731	172.745
430.833	179.74
431.935	167.734
433.035	179.729
434.136	184.724
435.238	179.719
436.338	180.714
437.439	178.709
438.54	161.703
439.639	168.698
440.74	154.693
441.839	162.688
442.94	169.683
444.04	157.678
445.139	170.673
446.239	153.667
447.338	179.662
448.438	173.657
449.537	161.652
450.636	179.647
451.735	186.642
452.833	166.637
453.933	166.631
455.032	171.626
456.13	179.621
457.228	177.616
458.326	151.611
459.425	170.606
460.522	156.601
461.62	161.595
462.719	177.59
463.816	161.585
464.914	161.58
466.01	182.575
467.108	182.57
468.205	154.565
469.302	159.559
470.398	155.554
471.496	176.549
472.592	180.544
473.689	172.539
474.785	180.534
475.881	167.529
476.977	169.523
478.073	160.518
479.169	150.513
480.265	160.508
481.36	160.503
482.456	183.498
483.551	175.493
484.647	178.487
485.741	167.482
486.837	156.477
487.931	166.472
489.027	197.467
490.121	170.462
491.216	153.457
492.31	179.451
493.405	190.446
494.498	183.441
495.593	167.436
496.686	175.431
497.78	182.426
498.874	177.421
499.967	183.415
501.061	181.41
502.154	170.405
503.248	180.4
504.34	163.395
505.433	178.39
506.526	205.385
507.618	182.379
508.711	179.374
509.803	172.369
510.896	192.364
511.988	164.359
513.08	193.354
514.172	187.348
515.264	203.343
516.355	157.338
517.447	194.333
518.538	193.328
519.63	179.323
520.721	192.318
521.811	188.312
522.903	175.307
523.993	195.302
525.084	188.297
526.175	182.292
527.265	191.287
528.355	174.282
529.446	179.276
530.535	157.271
531.625	178.266
532.716	201.261
533.805	197.256
534.894	196.251
535.984	182.246
537.073	167.24
538.162	182.235
539.252	183.23
540.341	181.225
541.429	174.22
542.519	175.215
543.607	179.21
544.695	188.204
545.783	191.199
546.872	187.194
547.96	185.189
549.047	175.184
550.136	167.179
551.223	178.174
552.311	181.168
553.398	179.163
554.486	175.158
555.573	186.153
556.66	186.148
557.747	172.143
558.834	187.138
559.921	172.132
561.007	193.127
562.093	163.122
563.181	189.117
564.267	188.112
565.352	181.107
566.438	168.102
567.524	169.096
568.61	168.091
569.696	184.086
570.781	193.081
571.866	168.076
572.951	180.071
574.037	160.066
575.122	178.06
576.207	180.055
577.291	187.05
578.376	172.045
579.461	193.04
580.545	179.035
581.63	183.03
582.714	179.024
583.797	174.019
584.881	187.014
585.966	196.009
587.049	197.004
588.133	187.999
589.216	169.993
590.299	178.988
591.382	167.983
592.465	177.978
593.548	168.973
594.632	188.968
595.714	183.963
596.797	187.957
597.879	188.952
598.961	182.947
600.043	177.942
601.125	178.937
602.207	174.932
603.289	172.927
604.372	166.921
605.453	174.916
606.534	162.911
607.616	172.906
608.697	172.901
609.778	177.896
610.859	179.891
611.939	167.885
613.02	143.88
614.101	182.875
615.181	176.87
616.261	184.865
617.341	153.86
618.422	175.855
619.502	155.849
620.581	165.844
621.662	187.839
622.742	169.834
623.821	169.829
624.901	166.824
625.98	166.819
627.059	166.813
628.138	180.808
629.217	176.803
630.296	167.798
631.375	161.793
632.453	173.788
633.531	181.783
634.61	173.777
635.688	174.772
636.766	158.767
637.844	191.762
638.922	153.757
640	170.752
641.077	167.747
642.154	153.741
643.231	151.736
644.308	164.731
645.385	158.726
646.462	179.721
647.539	163.716
648.616	159.711
649.693	167.705
650.769	163.7
651.846	158.695
652.922	156.69
653.998	186.685
655.074	158.68
656.15	176.674
657.226	155.669
658.301	161.664
659.376	174.659
660.452	169.654
661.527	165.649
662.602	164.644
663.678	172.638
664.753	157.633
665.828	179.628
666.902	163.623
667.977	172.618
669.051	187.613
670.125	172.608
671.199	178.602
672.274	163.597
673.348	179.592
674.422	177.587
675.496	180.582
676.568	172.577
677.642	165.572
678.715	187.566
679.789	153.561
680.862	158.556
681.935	175.551
683.007	174.546
684.08	169.541
685.153	185.536
686.226	162.53
687.298	197.525
688.369	169.52
689.442	170.515
690.514	172.51
691.586	178.505
692.658	156.5
693.729	162.494
694.801	169.489
695.872	187.484
696.944	168.479
698.015	174.474
699.085	169.469
700.157	176.464
701.228	184.458
702.299	179.453
703.368	186.448
704.439	178.443
705.51	171.438
706.58	171.433
707.649	181.428
708.72	179.422
709.79	176.417
710.86	158.412
711.929	159.407
712.998	182.402
714.068	170.397
715.137	174.392
716.206	172.386
717.275	185.381
718.345	146.376
719.413	177.371
720.482	174.366
721.55	172.361
722.618	176.356
723.687	198.35
724.755	176.345
725.823	161.34
726.891	143.335
727.959	175.33
729.026	161.325
730.094	176.32
731.162	173.314
732.228	190.309
733.296	187.304
734.363	180.299
735.43	173.294
736.497	182.289
737.564	181.283
738.63	177.278
739.697	164.273
740.762	167.268
741.829	163.263
742.896	167.258
743.961	185.253
745.027	186.247
746.094	177.242
747.159	152.237
748.225	160.232
749.289	167.227
750.355	188.222
751.421	172.217
752.485	166.211
753.55	174.206
754.615	177.201
755.68	152.196
756.744	154.191
757.809	167.186
758.874	185.181
759.937	175.175
761.002	177.17
762.065	180.165
763.129	174.16
764.193	175.155
765.257	188.15
766.32	190.145
767.384	163.139
768.446	176.134
769.51	188.129
770.572	178.124
771.636	156.119
772.699	172.114
773.761	170.109
774.824	173.103
775.886	181.098
776.949	185.093
778.011	151.088
779.073	178.083
780.135	167.078
781.196	184.073
782.258	167.067
783.319	178.062
784.382	175.057
785.442	179.052
786.504	162.047
787.565	201.042
788.626	181.037
789.687	171.031
790.748	179.026
791.808	174.021
792.87	175.016
793.929	179.011
794.989	162.006
796.05	169.001
797.11	178.995
798.17	181.99
799.23	177.985
800.29	182.98
801.349	168.975
802.408	174.97
803.468	175.965
804.527	180.959
805.587	181.954
806.645	172.949
807.704	168.944
808.763	173.939
809.821	174.934
810.879	190.928
811.938	158.923
812.996	173.918
814.055	193.913
815.113	177.908
816.17	158.903
817.229	168.898
818.286	169.892
819.343	169.887
820.402	183.882
821.459	163.877
822.515	155.872
823.573	171.867
824.63	182.862
825.686	168.856
826.744	173.851
827.8	192.846
828.856	166.841
829.914	165.836
830.969	186.831
832.025	168.826
833.082	170.82
834.138	179.815
835.193	153.81
836.248	184.805
837.305	181.8
838.36	165.795
839.415	191.79
840.471	171.784
841.526	196.779
842.581	178.774
843.635	164.769
844.691	183.764
845.745	186.759
846.799	176.754
847.853	182.748
848.908	183.743
849.962	178.738
851.016	188.733
852.07	171.728
853.124	172.723
854.178	179.718
855.231	169.712
856.284	174.707
857.337	192.702
858.392	164.697
859.444	169.692
860.497	190.687
861.55	162.682
862.602	159.676
863.656	193.671
864.708	189.666
865.76	173.661
866.813	172.656
867.864	163.651
868.916	165.646
869.969	182.64
871.021	163.635
872.072	161.63
873.124	181.625
874.175	163.62
875.226	153.615
876.278	154.61
877.329	165.604
878.38	147.599
879.431	188.594
880.481	168.589
881.532	155.584
882.582	169.579
883.633	160.574
884.684	157.568
885.734	155.563
886.784	183.558
887.834	164.553
888.883	169.548
889.933	139.543
890.982	161.537
892.032	177.532
893.081	183.527
894.13	169.522
895.179	168.517
896.229	171.512
897.278	180.507
898.327	160.501
899.375	188.496
900.424	163.491
901.472	156.486
902.52	182.481
903.569	174.476
904.617	173.471
905.664	195.465
906.712	192.46
907.76	162.455
908.808	168.45
909.855	173.445
910.902	158.44
911.95	179.435
912.997	153.429
914.044	158.424
915.091	164.419
916.137	185.414
917.184	185.409
918.231	195.404
919.277	182.399
920.323	185.393
921.37	191.388
922.416	174.383
923.462	166.378
924.508	151.373
925.553	168.368
926.599	167.363
927.645	177.357
928.69	169.352
929.735	159.347
930.781	177.342
931.826	170.337
932.871	154.332
933.916	196.327
934.959	177.321
936.004	171.316
937.048	182.311
938.093	168.306
939.137	168.301
940.181	165.296
941.226	184.291
942.269	193.285
943.313	171.28
944.357	174.275
945.401	180.27
946.443	175.265
947.487	156.26
948.53	175.255
949.573	191.249
950.616	186.244
951.659	167.239
952.702	177.234
953.744	190.229
954.786	171.224
955.829	191.219
956.871	182.213
957.914	159.208
958.956	183.203
959.998	169.198
961.039	183.193
962.082	157.188
963.122	193.182
964.163	182.177
965.206	164.172
966.246	190.167
967.288	186.162
968.328	197.157
969.368	190.152
970.411	199.146
971.45	199.141
972.492	191.136
973.532	204.131
974.571	201.126
975.613	184.121
976.652	212.116
977.693	237.11
978.732	197.105
979.771	223.1
980.812	228.095
981.851	220.09
982.889	243.085
983.93	253.08
984.968	259.074
986.009	258.069
987.047	292.064
988.085	301.059
989.125	316.054
990.162	334.049
991.2	343.044
992.24	361.038
993.277	391.033
994.315	450.028
995.354	401.023
996.391	461.018
997.43	480.013
998.467	497.008
999.504	493.002
1000.54	520.997
1001.58	550.992
1002.62	547.987
1003.65	509.982
1004.69	490.977
1005.73	469.972
1006.76	472.966
1007.8	420.961
1008.84	409.956
1009.87	354.951
1010.91	354.946
1011.95	328.941
1012.98	305.936
1014.02	303.93
1015.05	274.925
1016.09	265.92
1017.13	236.915
1018.16	228.91
1019.19	246.905
1020.23	224.9
1021.27	231.894
1022.3	205.889
1023.34	235.884
1024.37	219.879
1025.4	228.874
1026.44	230.869
1027.47	184.864
1028.51	183.858
1029.54	212.853
1030.58	208.848
1031.61	192.843
1032.64	206.838
1033.68	189.833
1034.71	201.827
1035.75	185.822
1036.78	194.817
1037.81	192.812
1038.85	196.807
1039.88	220.802
1040.91	204.797
1041.95	216.791
1042.98	202.786
1044.01	196.781
1045.04	194.776
1046.08	188.771
1047.11	195.766
1048.14	180.761
1049.17	191.755
1050.2	209.75
1051.23	204.745
1052.27	168.74
1053.3	193.735
1054.33	187.73
1055.36	190.725
1056.39	177.719
1057.42	208.714
1058.45	172.709
1059.49	190.704
1060.52	200.699
1061.55	199.694
1062.58	213.689
1063.61	184.683
1064.64	192.678
1065.67	194.673
1066.7	183.668
1067.73	203.663
1068.76	199.658
1069.79	189.653
1070.82	184.647
1071.85	200.642
1072.88	198.637
1073.91	195.632
1074.93	200.627
1075.96	188.622
1076.99	189.617
1078.02	211.611
1079.05	183.606
1080.08	200.601
1081.11	199.596
1082.13	189.591
1083.16	192.586
1084.19	175.581
1085.22	175.575
1086.25	198.57
1087.28	186.565
1088.3	203.56
1089.33	189.555
1090.36	212.55
1091.39	179.545
1092.41	183.539
1093.44	209.534
1094.47	189.529
1095.5	173.524
1096.52	199.519
1097.55	200.514
1098.57	194.508
1099.6	189.503
1100.63	200.498
1101.65	194.493
1102.68	194.488
1103.71	191.483
1104.73	183.478
1105.76	173.472
1106.78	199.467
1107.81	210.462
1108.83	186.457
1109.86	212.452
1110.88	194.447
1111.91	199.442
1112.93	194.436
1113.96	199.431
1114.98	190.426
1116.01	174.421
1117.03	176.416
1118.06	190.411
1119.08	190.406
1120.11	198.4
1121.13	193.395
1122.15	203.39
1123.18	191.385
1124.2	198.38
1125.22	178.375
1126.25	165.37
1127.27	177.364
1128.3	193.359
1129.32	216.354
1130.34	194.349
1131.36	185.344
1132.39	208.339
1133.41	219.334
1134.43	208.328
1135.45	197.323
1136.48	203.318
1137.5	200.313
1138.52	202.308
1139.55	228.303
1140.57	200.298
1141.59	213.292
1142.61	212.287
1143.63	223.282
1144.65	210.277
1145.67	196.272
1146.7	204.267
1147.72	213.262
1148.74	207.256
1149.76	215.251
1150.78	206.246
1151.8	228.241
1152.82	216.236
1153.84	215.231
1154.86	223.226
1155.88	216.22
1156.9	229.215
1157.92	228.21
1158.94	232.205
1159.96	216.2
1160.98	203.195
1162	235.19
1163.02	212.184
1164.04	209.179
1165.06	214.174
1166.08	212.169
1167.1	212.164
1168.12	214.159
1169.14	214.154
1170.15	208.148
1171.17	215.143
1172.19	205.138
1173.21	193.133
1174.23	202.128
1175.25	178.123
1176.26	210.117
1177.28	202.112
1178.3	185.107
1179.32	202.102
1180.33	193.097
1181.35	194.092
1182.37	205.087
1183.39	186.081
1184.4	200.076
1185.42	186.071
1186.44	202.066
1187.45	188.061
1188.47	205.056
1189.49	180.051
1190.5	188.045
1191.52	194.04
1192.54	189.035
1193.55	190.03
1194.57	188.025
1195.59	177.02
1196.6	200.015
1197.61	197.009
1198.63	196.004
1199.65	193.999
1200.66	204.994
1201.68	198.989
1202.69	191.984
1203.71	188.979
1204.72	204.973
1205.74	186.968
1206.75	196.963
1207.77	196.958
1208.78	182.953
1209.8	179.948
1210.81	196.943
1211.82	193.937
1212.84	199.932
1213.85	186.927
1214.86	182.922
1215.88	189.917
1216.89	184.912
1217.91	199.907
1218.92	182.901
1219.93	187.896
1220.95	197.891
1221.96	201.886
1222.97	178.881
1223.98	201.876
1225	203.871
1226.01	192.865
1227.02	188.86
1228.03	202.855
1229.05	211.85
1230.06	202.845
1231.07	184.84
1232.08	200.835
1233.09	199.829
1234.11	183.824
1235.12	191.819
1236.13	172.814
1237.14	204.809
1238.15	207.804
1239.16	198.799
1240.17	181.793
1241.18	181.788
1242.2	208.783
1243.21	184.778
1244.22	186.773
1245.23	191.768
1246.24	200.762
1247.25	195.757
1248.26	192.752
1249.27	203.747
1250.28	193.742
1251.29	194.737
1252.3	197.732
1253.31	199.726
1254.32	212.721
